File: inputs/coatings/quoted_old/materionJ+HDBS.csv
Preliminary design data,,
1901,,
Wavelength (nm),%R,%T
600,0.7416104,0.258259
607,0.9876697,1.23E-02
614,0.9980324,1.95E-03
621,0.941644,5.83E-02
628,0.6200584,0.3796239
635,0.9176365,8.23E-02
642,0.9965235,3.45E-03
649,0.9831848,1.68E-02
656,0.9740127,2.60E-02
663,0.6599814,0.3394695
670,0.8695065,0.1304306
677,0.2930723,0.7061785
684,0.8871392,0.112753
691,0.796634,0.2031567
698,0.6622119,0.3371411
705,0.9753719,2.46E-02
712,0.926707,7.32E-02
719,0.4053233,0.5942155
726,0.9527488,4.72E-02
733,0.6935157,0.3063118
740,0.9802734,1.97E-02
747,0.9309362,6.90E-02
754,0.9079751,9.20E-02
761,0.8929299,0.1070185
768,0.9821615,1.78E-02
775,0.6955619,0.3042218
782,0.8691039,0.1307308
789,0.8798079,0.1200683
796,0.9677961,3.22E-02
803,0.9738538,2.61E-02
810,0.920651,7.93E-02
817,0.858084,0.1418277
824,0.7895634,0.2102773
831,0.9142246,8.57E-02
838,0.6987882,0.3011221
845,0.9578059,4.21E-02
852,0.944098,5.58E-02
859,0.6796439,0.3202488
866,0.9411435,5.88E-02
873,0.9132318,8.67E-02
880,0.6834082,0.3164871
887,0.9615606,3.84E-02
894,0.9836601,1.63E-02
901,0.9834687,1.65E-02
908,0.9366032,0.0633527
915,0.7884765,0.2114361
922,0.9461471,5.38E-02
929,0.9372808,6.27E-02
936,0.7679988,0.2319139
943,0.4280079,0.5718573
950,7.01E-02,0.9297064
957,5.43E-02,0.9455457
964,5.46E-02,0.9452603
971,5.14E-02,0.9484653
978,5.56E-02,0.9442731
985,5.16E-02,0.9482653
992,5.51E-02,0.9448276
999,0.0474927,0.9523878
1006,5.15E-02,0.9483344
1013,4.59E-02,0.9539566
1020,5.24E-02,0.9474578
1027,4.92E-02,0.9506766
1034,4.80E-02,0.9519179
1041,5.54E-02,0.9444773
1048,4.81E-02,0.9517495
1055,5.61E-02,0.9438191
1062,0.0563244,0.9435675
1069,5.18E-02,0.9480775
1076,5.92E-02,0.9406662
1083,4.93E-02,0.9506295
1090,5.40E-02,0.9458696
1097,6.02E-02,0.9397356
1104,4.55E-02,0.9544033
1111,5.82E-02,0.9416917
1118,5.46E-02,0.9452721
1125,4.63E-02,0.9536321
1132,6.12E-02,0.9387308
1139,7.67E-02,0.923187
1146,5.52E-02,0.944649
1153,0.4502054,0.5496857
1160,0.6011952,0.3987176
1167,0.815821,0.1841055
1174,0.951759,4.82E-02
1181,0.9832131,1.68E-02
1188,0.9912162,8.77E-03
1195,0.9932985,6.69E-03
1202,0.9926062,7.38E-03
1209,0.988084,1.19E-02
1216,0.9764746,2.35E-02
1223,0.9759116,2.41E-02
1230,0.9841008,1.59E-02
1237,0.9854959,1.45E-02
1244,0.9807997,1.92E-02
1251,0.9737457,2.62E-02
1258,0.978184,2.18E-02
1265,0.9835346,0.0164588
1272,0.983195,1.68E-02
1279,0.9773737,2.26E-02
1286,0.9737995,2.62E-02
1293,0.9802752,1.97E-02
1300,0.984648,1.53E-02
1307,0.983547,1.64E-02
1314,0.9765307,2.35E-02
1321,0.9725357,2.75E-02
1328,0.9802183,1.98E-02
1335,0.986546,1.34E-02
1342,0.988158,1.18E-02
1349,0.9865525,1.34E-02
1356,0.9826961,1.73E-02
1363,0.9801412,1.99E-02
1370,0.979867,2.01E-02
1377,0.9818503,1.81E-02
1384,0.976661,2.33E-02
1391,0.9683653,3.16E-02
1398,0.977277,2.27E-02
1405,0.9883112,1.17E-02
1412,0.9924811,7.50E-03
1419,0.9933813,6.60E-03
1426,0.9919193,8.05E-03
1433,0.9858214,1.41E-02
1440,0.969584,3.03E-02
1447,0.9758755,2.40E-02
1454,0.9890945,1.08E-02
1461,0.9932245,6.74E-03
1468,0.9940657,5.89E-03
1475,0.9924077,7.46E-03
1482,0.9872617,1.26E-02
1489,0.9759511,2.39E-02
1496,0.9701948,2.97E-02
1503,0.9840721,1.58E-02
1510,0.9889392,1.09E-02
1517,0.9904456,9.35E-03
1524,0.9918306,8.09E-03
1531,0.9896023,1.03E-02
1538,0.9842193,1.57E-02
1545,0.9802589,1.96E-02
1552,0.984547,0.0152767
1559,0.9886118,1.11E-02
1566,0.9921427,7.74E-03
1573,0.9932289,6.70E-03
1580,0.9926955,7.25E-03
1587,0.9904269,9.51E-03
1594,0.9853008,1.46E-02
1601,0.9771846,2.27E-02
1608,0.9735622,2.62E-02
1615,0.9796511,2.02E-02
1622,0.9855044,1.44E-02
1629,0.9877566,1.22E-02
1636,0.9877177,0.0122277
1643,0.9856024,1.43E-02
1650,0.9810033,1.89E-02
1657,0.9745464,2.53E-02
1664,0.9714715,2.84E-02
1671,0.9754176,2.44E-02
1678,0.981111,1.88E-02
1685,0.9849182,1.50E-02
1692,0.9866668,1.33E-02
1699,0.9868715,1.31E-02
1706,0.9857873,1.42E-02
1713,0.9834863,1.65E-02
1720,0.9802561,1.97E-02
1727,0.9771394,0.0228407
1734,0.9756794,2.43E-02
1741,0.9762688,0.0237132
1748,0.9777114,2.23E-02
1755,0.9787234,2.13E-02
1762,0.9786134,2.14E-02
1769,0.9769482,2.30E-02
1776,0.9731306,2.68E-02
1783,0.96608,3.39E-02
1790,0.9538962,4.61E-02
1797,0.9330453,6.69E-02
1804,0.8963464,0.1036188
1811,0.8314117,0.1685454
1818,0.7276806,0.2722664
1825,0.6052508,0.3946878
1832,0.522105,0.4778306
1839,0.4936026,0.5063327
1846,0.479808,0.520124
1853,0.4412288,0.5586929
1860,0.338923,0.6609777
1867,0.1569876,0.8428876
1874,4.59E-02,0.9539627
1881,6.32E-02,0.9367376
1888,9.19E-02,0.9079927
1895,9.55E-02,0.9044231
1902,8.10E-02,0.9188974
1909,6.39E-02,0.9360188
1916,5.45E-02,0.9453903
1923,5.29E-02,0.9469813
1930,5.42E-02,0.9457399
1937,5.49E-02,0.9450659
1944,5.45E-02,0.945378
1951,5.47E-02,0.9452678
1958,5.68E-02,0.9431669
1965,6.10E-02,0.9389718
1972,6.54E-02,0.9345526
1979,6.74E-02,0.9325065
1986,6.55E-02,0.9344
1993,6.00E-02,0.9399311
2000,5.28E-02,0.9471666
2007,4.64E-02,0.9533001
2014,4.36E-02,0.9557961
2021,4.55E-02,0.9536799
2028,5.09E-02,0.9480339
2035,5.74E-02,0.9413933
2042,6.21E-02,0.9364619
2049,6.34E-02,0.9349862
2056,6.09E-02,0.9372612
2063,5.57E-02,0.9422171
2070,4.98E-02,0.9479169
2077,4.52E-02,0.952261
2084,4.35E-02,0.9537553
2091,4.50E-02,0.9520714
2098,4.87E-02,0.9481034
2105,5.32E-02,0.9434979
2112,5.65E-02,0.9399477
2119,5.77E-02,0.9386043
2126,5.63E-02,0.939788
2133,0.0528993,0.9429917
2140,4.86E-02,0.9471062
2147,4.47E-02,0.9507986
2154,4.23E-02,0.952952
2161,4.20E-02,0.9530319
2168,0.0436839,0.9512137
2175,4.65E-02,0.9482732
2182,4.93E-02,0.9452556
2189,5.13E-02,0.9431131
2196,5.18E-02,0.9424328
2203,5.07E-02,0.9433102
2210,4.85E-02,0.9453666
2217,4.58E-02,0.9478853
2224,4.34E-02,0.9500328
2231,4.22E-02,0.9511099
2238,4.24E-02,0.9507582
2245,4.39E-02,0.9490516
2252,4.64E-02,0.9464443
2259,4.91E-02,0.9436104
2266,5.13E-02,0.9412409
2273,5.25E-02,0.9398646
2280,5.25E-02,0.9397328
2287,5.12E-02,0.9407793
2294,4.92E-02,0.9426553
2301,4.68E-02,0.9448288
2308,0.0447327,0.9467289
2315,4.34E-02,0.9478961
2322,4.30E-02,0.948096
2329,4.36E-02,0.9473611
2336,4.49E-02,0.9459526
2343,4.64E-02,0.9442676
2350,4.78E-02,0.9427261
2357,4.88E-02,0.9416695
2364,4.90E-02,0.9412879
2371,4.85E-02,0.9415872
2378,4.76E-02,0.9423948
2385,4.64E-02,0.9434062
2392,4.53E-02,0.9442642
2399,4.48E-02,0.9446513
2406,4.49E-02,0.9443707
2413,4.57E-02,0.9433895
2420,4.72E-02,0.9418359
2427,4.89E-02,0.9399564
2434,5.07E-02,0.9380543
2441,5.21E-02,0.9364305
2448,5.31E-02,0.9353278
2455,5.33E-02,0.9349005
2462,5.28E-02,0.9352006
2469,5.16E-02,0.9361777
2476,4.99E-02,0.9376872
2483,4.78E-02,0.9394913
2490,0.045831,0.9412243
2497,4.44E-02,0.9422996
2500,4.43E-02,0.9423391