File: inputs/coatings/quoted_old/materionCSDJY_HKDBS.csv
Preliminary design data,,
1551,,
Wavelength (nm),%R,%T
950,0.8254437,0.1744964
956,0.8805202,0.1194187
962,0.9716246,2.83E-02
968,0.9901631,9.82E-03
974,0.9950558,4.93E-03
980,0.9967236,3.27E-03
986,0.9972721,2.72E-03
992,0.9972026,2.79E-03
998,0.9964951,3.50E-03
1004,0.9948077,5.19E-03
1010,0.9923673,7.63E-03
1016,0.9921825,7.81E-03
1022,0.9942858,5.71E-03
1028,0.9956622,4.33E-03
1034,0.996025,3.97E-03
1040,0.9955768,4.42E-03
1046,0.9943954,5.60E-03
1052,0.9934198,6.58E-03
1058,0.9944069,5.59E-03
1064,0.9960765,3.92E-03
1070,0.997088,2.91E-03
1076,0.9974735,2.52E-03
1082,0.9973671,2.63E-03
1088,0.9966444,3.35E-03
1094,0.994711,5.28E-03
1100,0.9912233,8.77E-03
1106,0.9893948,1.06E-02
1112,0.9929455,7.05E-03
1118,0.9956864,4.31E-03
1124,0.996866,3.13E-03
1130,0.9972273,2.77E-03
1136,0.9970066,2.99E-03
1142,0.9960815,3.91E-03
1148,0.9941182,5.88E-03
1154,0.9884496,1.15E-02
1160,0.9776533,2.23E-02
1166,0.9814422,1.85E-02
1172,0.9900914,9.90E-03
1178,0.9937316,6.26E-03
1184,0.9950595,4.93E-03
1190,0.995287,4.70E-03
1196,0.9946474,5.33E-03
1202,0.9927817,7.19E-03
1208,0.9885572,0.0113913
1214,0.9811299,1.88E-02
1220,0.9789609,2.09E-02
1226,0.9861459,1.38E-02
1232,0.991511,8.45E-03
1238,0.9940815,5.89E-03
1244,0.9952266,4.74E-03
1250,0.9956036,4.36E-03
1256,0.9954087,4.54E-03
1262,0.9944812,0.0054158
1268,0.9921304,7.61E-03
1274,0.9897586,1.01E-02
1280,0.9850245,0.0148876
1286,0.979324,2.06E-02
1292,0.9792991,2.06E-02
1298,0.9845407,0.0153972
1304,0.9890238,1.09E-02
1310,0.9915303,8.42E-03
1316,0.9924411,7.49E-03
1322,0.9915623,8.30E-03
1328,0.9913064,8.54E-03
1334,0.9928278,7.10E-03
1340,0.9930049,6.96E-03
1346,0.9922734,7.70E-03
1352,0.9907166,9.26E-03
1358,0.9880356,1.19E-02
1364,0.9835241,1.65E-02
1370,0.9757478,2.42E-02
1376,0.9617589,3.82E-02
1382,0.9353926,0.0645817
1388,0.8842025,0.1157661
1394,0.78857,0.2113904
1400,0.6470179,0.3529344
1406,0.5315367,0.4684134
1412,0.5066684,0.4932857
1418,0.5272623,0.4726955
1424,0.5434993,0.4564592
1430,0.5398448,0.4601109
1436,0.5120352,0.4879139
1442,0.4486701,0.5512669
1448,0.3179843,0.6819331
1454,0.1300394,0.8698621
1460,0.0453449,0.9545662
1466,6.28E-02,0.9370781
1472,8.43E-02,0.9156708
1478,8.63E-02,0.9135928
1484,7.58E-02,0.9241059
1490,6.38E-02,0.9361607
1496,5.71E-02,0.9428698
1502,5.60E-02,0.9438941
1508,5.74E-02,0.9425032
1514,5.83E-02,0.9416904
1520,5.73E-02,0.942616
1526,5.51E-02,0.9448579
1532,5.28E-02,0.9471433
1538,5.18E-02,0.9481323
1544,5.28E-02,0.947148
1550,5.54E-02,0.9445254
1556,5.85E-02,0.9414122
1562,6.08E-02,0.9391584
1568,6.12E-02,0.9387203
1574,5.96E-02,0.9403466
1580,5.63E-02,0.9436073
1586,5.24E-02,0.9475891
1592,4.87E-02,0.9512362
1598,4.63E-02,0.9536057
1604,4.58E-02,0.9541417
1610,4.71E-02,0.9528232
1616,4.98E-02,0.9501442
1622,5.30E-02,0.9469314
1628,5.59E-02,0.9440846
1634,5.76E-02,0.9423434
1640,5.78E-02,0.9421128
1646,5.65E-02,0.9434148
1652,5.40E-02,0.9459247
1658,5.09E-02,0.9490754
1664,4.77E-02,0.9522119
1670,4.53E-02,0.9546754
1676,4.40E-02,0.9559588
1682,4.41E-02,0.955851
1688,4.55E-02,0.9544391
1694,4.78E-02,0.9521142
1700,5.06E-02,0.9493899
1706,5.31E-02,0.946815
1712,5.51E-02,0.9448755
1718,5.61E-02,0.9438989
1724,5.60E-02,0.9440104
1730,5.48E-02,0.9451385
1736,5.29E-02,0.9470431
1742,0.0506013,0.9493608
1748,0.0482913,0.9516709
1754,4.64E-02,0.9535681
1760,4.52E-02,0.9547318
1766,4.50E-02,0.9549798
1772,4.57E-02,0.9542877
1778,4.72E-02,0.9527939
1784,4.92E-02,0.9507615
1790,5.14E-02,0.9485229
1796,5.35E-02,0.9464227
1802,5.52E-02,0.9447675
1808,5.62E-02,0.9437864
1814,5.64E-02,0.9436078
1820,5.57E-02,0.9442514
1826,5.43E-02,0.945634
1832,0.0523951,0.9475698
1838,5.02E-02,0.9498114
1844,4.79E-02,0.952073
1850,4.59E-02,0.9540807
1856,4.44E-02,0.9555986
1862,4.35E-02,0.9564579
1868,0.0433865,0.9565789
1874,0.0439884,0.9559772
1880,4.52E-02,0.9547554
1886,4.69E-02,0.9530839
1892,4.88E-02,0.9511725
1898,5.07E-02,0.9492429
1904,5.25E-02,0.9475012
1910,5.38E-02,0.9461224
1916,5.47E-02,0.9452303
1922,5.51E-02,0.9448884
1928,5.49E-02,0.945099
1934,5.42E-02,0.945813
1940,5.30E-02,0.9469326
1946,5.16E-02,0.9483242
1952,5.01E-02,0.9498332
1958,4.87E-02,0.9512997
1964,4.74E-02,0.952579
1970,4.64E-02,0.9535469
1976,4.58E-02,0.954129
1982,4.57E-02,0.9542778
1988,4.60E-02,0.9540045
1994,4.66E-02,0.9533637
2000,4.75E-02,0.9524423
2006,4.86E-02,0.9512418
2012,4.98E-02,0.9499959
2018,5.09E-02,0.9488314
2024,5.17E-02,0.9478602
2030,5.23E-02,0.9471691
2036,5.26E-02,0.9468145
2042,5.25E-02,0.9468191
2048,5.21E-02,0.9471715
2054,5.13E-02,0.9478286
2060,5.04E-02,0.9487174
2066,4.92E-02,0.9497437
2072,4.81E-02,0.950811
2078,4.70E-02,0.9518155
2084,4.61E-02,0.9526607
2090,4.54E-02,0.9532661
2096,4.50E-02,0.9535745
2102,4.49E-02,0.9535561
2108,4.52E-02,0.9532105
2114,4.57E-02,0.9525649
2120,4.66E-02,0.9516704
2126,0.0475514,0.9505958
2132,4.86E-02,0.9494208
2138,4.98E-02,0.9482289
2144,5.08E-02,0.9471006
2150,5.17E-02,0.9461079
2156,5.25E-02,0.9453112
2162,5.29E-02,0.9447536
2168,5.32E-02,0.9444588
2174,5.31E-02,0.9444336
2180,5.28E-02,0.9446661
2186,5.23E-02,0.9451276
2192,5.15E-02,0.9457748
2198,5.07E-02,0.9465525
2204,4.97E-02,0.9473982
2210,4.88E-02,0.9482461
2216,4.80E-02,0.9490317
2222,4.72E-02,0.9496973
2228,4.66E-02,0.9501953
2234,4.63E-02,0.9504921
2240,4.61E-02,0.95057
2246,4.62E-02,0.9504284
2252,4.65E-02,0.9500819
2258,4.69E-02,0.9495597
2264,4.75E-02,0.9489018
2270,4.82E-02,0.9481554
2276,4.89E-02,0.947371
2282,4.96E-02,0.946599
2288,5.03E-02,0.9458861
2294,5.08E-02,0.9452727
2300,5.12E-02,0.9447907
2306,5.15E-02,0.9444624
2312,5.16E-02,0.9442995
2318,5.15E-02,0.9443029
2324,5.13E-02,0.9444635
2330,0.0509375,0.9447623
2336,5.05E-02,0.9451721
2342,4.99E-02,0.9456584
2348,4.93E-02,0.9461824
2354,4.87E-02,0.9467026
2360,4.82E-02,0.9471776
2366,4.77E-02,0.9475691
2372,4.74E-02,0.9478443
2378,4.72E-02,0.9479786
2384,4.71E-02,0.9479576
2390,4.73E-02,0.9477782
2396,4.75E-02,0.9474493
2402,4.79E-02,0.9469911
2408,4.84E-02,0.9464339
2414,4.90E-02,0.9458151
2420,4.96E-02,0.9451769
2426,5.01E-02,0.9445628
2432,0.0506236,0.944014
2438,5.10E-02,0.9435668
2444,5.13E-02,0.9432498
2450,5.14E-02,0.9430769
2456,5.14E-02,0.9430509
2462,5.12E-02,0.94316
2468,5.09E-02,0.9433765
2474,5.05E-02,0.9436563
2480,5.02E-02,0.9439386
2486,0.0499117,0.944146
2492,4.98E-02,0.9441854
2498,5.00E-02,0.9439484
2500,5.01E-02,0.9437874