File: inputs/coatings/quoted_old/materionJHGapDBS.csv
Preliminary design data,,
1901,,
Wavelength (nm),%R,%T
600,0.9338067,6.61E-02
607,0.6342344,0.3656435
614,0.9960195,3.96E-03
621,0.9021966,9.77E-02
628,0.9990392,9.51E-04
635,0.9983069,1.68E-03
642,0.999338,6.51E-04
649,0.9564398,4.35E-02
656,0.9804111,1.95E-02
663,0.9980046,1.97E-03
670,0.9848309,1.51E-02
677,0.923559,7.63E-02
684,0.9391512,6.08E-02
691,0.6411187,0.3587714
698,0.9107373,8.92E-02
705,0.9799766,2.00E-02
712,0.8929285,0.1069926
719,0.6460074,0.3535781
726,0.9733218,2.66E-02
733,0.9446406,5.52E-02
740,0.9594399,0.0404374
747,0.9718318,0.0281184
754,0.959524,4.04E-02
761,0.9609743,0.0388243
768,0.993902,6.05E-03
775,0.9987882,1.18E-03
782,0.9983456,1.62E-03
789,0.9787255,2.12E-02
796,0.9676306,3.23E-02
803,0.9840289,1.58E-02
810,0.9736708,2.61E-02
817,0.9582055,4.17E-02
824,0.99715,2.82E-03
831,0.9956548,4.31E-03
838,0.9936478,6.31E-03
845,0.9995899,3.94E-04
852,0.999794,1.90E-04
859,0.9997491,2.31E-04
866,0.999292,6.73E-04
873,0.9932446,6.62E-03
880,0.9879407,1.20E-02
887,0.9851601,1.47E-02
894,0.9677715,3.22E-02
901,0.980745,1.92E-02
908,0.9772912,2.27E-02
915,0.9430341,5.69E-02
922,0.8191283,0.1808118
929,0.5903473,0.4095638
936,0.4921109,0.5077916
943,0.4170895,0.582783
950,7.85E-02,0.9213462
957,5.66E-02,0.9432326
964,5.13E-02,0.9485227
971,4.83E-02,0.9515322
978,4.67E-02,0.9531572
985,5.25E-02,0.9473719
992,5.06E-02,0.9493017
999,0.051486,0.9483963
1006,5.50E-02,0.944883
1013,4.78E-02,0.9520485
1020,5.01E-02,0.9497412
1027,0.0534972,0.9463927
1034,4.83E-02,0.9515564
1041,5.15E-02,0.9484192
1048,5.33E-02,0.9465746
1055,4.73E-02,0.9525846
1062,5.19E-02,0.9479856
1069,5.78E-02,0.9421118
1076,4.96E-02,0.9502974
1083,4.67E-02,0.9531525
1090,0.056704,0.9431963
1097,5.70E-02,0.9429148
1104,4.83E-02,0.9515615
1111,5.08E-02,0.9490978
1118,5.74E-02,0.9424571
1125,5.29E-02,0.947014
1132,4.86E-02,0.9512609
1139,5.56E-02,0.9443274
1146,5.89E-02,0.9409962
1153,5.09E-02,0.9490404
1160,4.78E-02,0.9521345
1167,5.62E-02,0.9436602
1174,5.91E-02,0.9407923
1181,5.09E-02,0.9490052
1188,4.85E-02,0.9513679
1195,5.78E-02,0.942069
1202,6.14E-02,0.9385445
1209,5.33E-02,0.9466462
1216,5.15E-02,0.9483953
1223,6.44E-02,0.9354791
1230,7.14E-02,0.9284741
1237,6.20E-02,0.9379078
1244,0.0535126,0.9463977
1251,6.39E-02,0.9360232
1258,7.30E-02,0.9268926
1265,6.29E-02,0.9369991
1272,5.53E-02,0.9445885
1279,7.46E-02,0.9253163
1286,8.68E-02,0.9131023
1293,5.88E-02,0.9411009
1300,5.09E-02,0.9490293
1307,9.57E-02,0.904159
1314,0.1273445,0.8725145
1321,0.399874,0.6000059
1328,0.6087783,0.3911269
1335,0.8758196,0.1241198
1342,0.9621451,3.78E-02
1349,0.985452,1.45E-02
1356,0.9931298,6.84E-03
1363,0.9961765,3.80E-03
1370,0.997566,2.41E-03
1377,0.9982633,1.72E-03
1384,0.9986298,1.35E-03
1391,0.9988167,1.16E-03
1398,0.998889,1.09E-03
1405,0.998871,1.11E-03
1412,0.9987603,1.22E-03
1419,0.9985287,1.45E-03
1426,0.9981094,1.87E-03
1433,0.9973594,2.62E-03
1440,0.9959659,4.01E-03
1447,0.9932037,6.77E-03
1454,0.9871988,1.28E-02
1461,0.9725909,2.74E-02
1468,0.9324899,6.75E-02
1475,0.8187329,0.1812005
1482,0.6048096,0.3951059
1489,0.5025076,0.4974144
1496,0.5157597,0.4841698
1503,0.5150415,0.4848837
1510,0.4779209,0.5219868
1517,0.3636746,0.6361954
1524,0.1384936,0.8613521
1531,7.29E-02,0.9269915
1538,7.39E-02,0.9259494
1545,7.81E-02,0.9218
1552,9.28E-02,0.9071434
1559,0.1018147,0.8980994
1566,9.49E-02,0.9049706
1573,7.63E-02,0.9236408
1580,5.87E-02,0.9411785
1587,5.55E-02,0.9444474
1594,6.57E-02,0.934195
1601,7.67E-02,0.9232244
1608,0.0786868,0.9212382
1615,0.0710623,0.9288633
1622,0.0594468,0.9404789
1629,5.14E-02,0.948508
1636,5.17E-02,0.9481885
1643,5.88E-02,0.9411064
1650,6.65E-02,0.9334524
1657,0.0690644,0.9308659
1664,6.48E-02,0.9351584
1671,5.58E-02,0.9441036
1678,4.69E-02,0.9529977
1685,4.26E-02,0.9572904
1692,4.46E-02,0.9552967
1699,5.09E-02,0.9489855
1706,0.0575669,0.9423662
1713,6.09E-02,0.939041
1720,5.94E-02,0.9405051
1727,5.42E-02,0.9457749
1734,4.79E-02,0.9520517
1741,0.0439184,0.9560159
1748,4.45E-02,0.9554667
1755,4.95E-02,0.9504404
1762,5.69E-02,0.9430463
1769,6.37E-02,0.9362489
1776,6.74E-02,0.9325238
1783,6.69E-02,0.9330239
1790,6.26E-02,0.9373854
1797,5.59E-02,0.9439914
1804,4.94E-02,0.9505262
1811,4.51E-02,0.9548311
1818,4.42E-02,0.9557472
1825,0.0464326,0.9535066
1832,5.05E-02,0.9494869
1839,5.44E-02,0.9455175
1846,5.68E-02,0.943141
1853,5.68E-02,0.9431286
1860,5.46E-02,0.945346
1867,5.11E-02,0.9488645
1874,4.76E-02,0.9523088
1881,4.56E-02,0.9543609
1888,4.57E-02,0.9542484
1895,4.79E-02,0.9519997
1902,5.16E-02,0.9483531
1909,5.55E-02,0.9444267
1916,0.0586046,0.9413388
1923,6.01E-02,0.9398853
1930,5.96E-02,0.9403749
1937,0.0573387,0.9426056
1944,5.40E-02,0.9459308
1951,5.05E-02,0.9494368
1958,4.77E-02,0.9522037
1965,4.64E-02,0.95358
1972,0.0465861,0.9533587
1979,4.81E-02,0.9518087
1986,5.04E-02,0.9495263
1993,5.27E-02,0.9472303
2000,5.44E-02,0.9455602
2007,5.50E-02,0.94478
2014,5.44E-02,0.9452184
2021,5.27E-02,0.9466376
2028,5.07E-02,0.948523
2035,4.88E-02,0.9502325
2042,4.76E-02,0.9511911
2049,4.76E-02,0.9510681
2056,4.86E-02,0.9498655
2063,5.04E-02,0.9478818
2070,5.25E-02,0.9456058
2077,5.44E-02,0.9435537
2084,0.0556513,0.9421457
2091,5.60E-02,0.9416343
2098,5.54E-02,0.9420732
2105,5.40E-02,0.9433156
2112,5.21E-02,0.9450425
2119,5.01E-02,0.9468239
2126,4.86E-02,0.9482148
2133,4.77E-02,0.948867
2140,4.78E-02,0.9486217
2147,4.87E-02,0.9475468
2154,5.02E-02,0.9459056
2161,5.19E-02,0.9440737
2168,5.34E-02,0.9424284
2175,5.44E-02,0.9412811
2182,5.47E-02,0.9408227
2189,5.43E-02,0.9411064
2196,5.32E-02,0.9420517
2203,5.16E-02,0.9434658
2210,4.98E-02,0.9450775
2217,0.0481415,0.9465863
2224,4.68E-02,0.9477227
2231,4.61E-02,0.948306
2238,4.60E-02,0.9482828
2245,4.64E-02,0.9477311
2252,4.72E-02,0.9468292
2259,4.80E-02,0.9458007
2266,4.88E-02,0.9448559
2273,4.94E-02,0.9441474
2280,4.97E-02,0.9437465
2287,4.96E-02,0.9436406
2294,4.94E-02,0.9437452
2301,4.90E-02,0.9439251
2308,4.88E-02,0.9440213
2315,4.88E-02,0.9438845
2322,4.91E-02,0.9434094
2329,4.98E-02,0.9425677
2336,5.08E-02,0.9414238
2343,0.0519871,0.9401299
2350,5.31E-02,0.9388951
2357,5.39E-02,0.9379355
2364,5.43E-02,0.9374216
2371,5.42E-02,0.9374352
2378,5.35E-02,0.9379485
2385,5.25E-02,0.9388287
2392,5.13E-02,0.9398649
2399,5.01E-02,0.9408111
2406,4.93E-02,0.9414386
2413,4.90E-02,0.941589
2420,0.0492333,0.9412217
2427,4.98E-02,0.9404446
2434,5.06E-02,0.9395171
2441,0.0511419,0.9388155
2448,5.10E-02,0.9387416
2455,4.99E-02,0.9395915
2462,4.79E-02,0.9413847
2469,4.53E-02,0.9436604
2476,0.0432624,0.9452664
2483,4.39E-02,0.9441841
2490,5.01E-02,0.9374779
2497,6.57E-02,0.9215226
2500,7.61E-02,0.9109281