File: inputs/coatings/quoted_old/materionJ+JHGapDBS.csv
Preliminary design data,,
1901,,
Wavelength (nm),%R,%T
600,0.9693202,3.06E-02
606.4,0.5635706,0.4362679
612.8,0.9510987,4.89E-02
619.2,0.9823264,1.76E-02
625.6,0.6252182,0.3746195
632,0.9494041,5.05E-02
638.4,0.9957772,4.21E-03
644.8,0.9290106,7.08E-02
651.2,0.9984021,1.59E-03
657.6,0.9989472,1.04E-03
664,0.9865457,0.0134163
670.4,0.9829618,1.70E-02
676.8,0.9727254,2.73E-02
683.2,0.5740519,0.4258436
689.6,0.7717336,0.2282295
696,0.8736112,0.1263626
702.4,0.7031521,0.2967938
708.8,0.8952124,0.1047297
715.2,0.8832942,0.1165786
721.6,0.8681687,0.1317669
728,0.9325311,6.74E-02
734.4,0.9389641,6.10E-02
740.8,0.6043019,0.3954971
747.2,0.9208797,7.91E-02
753.6,0.9175228,0.0824544
760,0.8531207,0.1468523
766.4,0.8538671,0.1460847
772.8,0.6013467,0.3983661
779.2,0.6822463,0.3175449
785.6,0.6548147,0.3450834
792,0.9528014,4.72E-02
798.4,0.7027172,0.2953815
804.8,0.9899496,1.00E-02
811.2,0.9979528,2.04E-03
817.6,0.9982925,1.70E-03
824,0.9918655,8.08E-03
830.4,0.9932491,6.61E-03
836.8,0.9990306,9.57E-04
843.2,0.9992552,7.34E-04
849.6,0.9982342,1.75E-03
856,0.9079317,0.0914264
862.4,0.9977505,2.22E-03
868.8,0.9989888,9.98E-04
875.2,0.9987816,1.20E-03
881.6,0.9965373,3.44E-03
888,0.9435879,5.62E-02
894.4,0.980083,1.98E-02
900.8,0.9913236,8.65E-03
907.2,0.9888546,1.11E-02
913.6,0.9733988,2.66E-02
920,0.9081895,9.18E-02
926.4,0.7759895,0.2239599
932.8,0.6600147,0.3399173
939.2,0.5200077,0.479891
945.6,0.1067438,0.8930653
952,6.09E-02,0.9389712
958.4,5.13E-02,0.9485763
964.8,5.62E-02,0.9436529
971.2,5.35E-02,0.9464031
977.6,5.68E-02,0.9431003
984,4.96E-02,0.950298
990.4,5.67E-02,0.9432397
996.8,6.01E-02,0.9398353
1003.2,4.70E-02,0.9529512
1009.6,5.12E-02,0.9486746
1016,6.47E-02,0.9352179
1022.4,5.56E-02,0.9443671
1028.8,4.53E-02,0.9546033
1035.2,0.0596217,0.940298
1041.6,6.84E-02,0.9315355
1048,5.40E-02,0.9459382
1054.4,4.80E-02,0.951956
1060.8,6.45E-02,0.9354185
1067.2,6.94E-02,0.9304795
1073.6,5.34E-02,0.9465375
1080,5.11E-02,0.9488387
1086.4,7.12E-02,0.9286826
1092.8,7.40E-02,0.9259373
1099.2,5.23E-02,0.9475952
1105.6,5.19E-02,0.9480609
1112,8.21E-02,0.9178218
1118.4,8.51E-02,0.9148691
1124.8,5.49E-02,0.9450035
1131.2,6.92E-02,0.9307295
1137.6,0.1104011,0.889519
1144,8.40E-02,0.9158551
1150.4,0.3141154,0.6857865
1156.8,0.5528494,0.4470772
1163.2,0.7870399,0.2129065
1169.6,0.9060389,9.39E-02
1176,0.9516049,4.84E-02
1182.4,0.9700351,2.99E-02
1188.8,0.9780675,2.19E-02
1195.2,0.9813948,1.86E-02
1201.6,0.9820449,1.79E-02
1208,0.9807119,1.92E-02
1214.4,0.9776677,2.22E-02
1220.8,0.973652,2.62E-02
1227.2,0.9713163,2.85E-02
1233.6,0.9720346,2.79E-02
1240,0.9733654,2.65E-02
1246.4,0.9739048,2.60E-02
1252.8,0.9734494,2.65E-02
1259.2,0.9725473,2.73E-02
1265.6,0.9725357,2.73E-02
1272,0.974665,2.52E-02
1278.4,0.9774945,2.24E-02
1284.8,0.9792352,2.07E-02
1291.2,0.9792625,2.07E-02
1297.6,0.9771857,2.27E-02
1304,0.9726259,2.73E-02
1310.4,0.9668958,3.30E-02
1316.8,0.9652198,3.47E-02
1323.2,0.9705494,0.0293646
1329.6,0.9783607,2.16E-02
1336,0.9841313,1.58E-02
1342.4,0.9874626,1.25E-02
1348.8,0.9890754,1.09E-02
1355.2,0.9894627,1.05E-02
1361.6,0.9887657,1.12E-02
1368,0.9868022,1.32E-02
1374.4,0.9830567,1.69E-02
1380.8,0.9768457,2.31E-02
1387.2,0.9686308,3.14E-02
1393.6,0.9627653,3.72E-02
1400,0.9641196,0.0358671
1406.4,0.969718,3.03E-02
1412.8,0.9746978,2.53E-02
1419.2,0.9775761,2.24E-02
1425.6,0.9783394,2.16E-02
1432,0.9768654,2.31E-02
1438.4,0.9725187,2.75E-02
1444.8,0.9656154,3.44E-02
1451.2,0.9570455,4.29E-02
1457.6,0.9426839,5.73E-02
1464,0.9160441,8.39E-02
1470.4,0.8672438,0.1327254
1476.8,0.7827657,0.2171956
1483.2,0.6618555,0.3380973
1489.6,0.5487642,0.4511831
1496,0.4947786,0.5051672
1502.4,0.4808648,0.5190789
1508.8,0.4571289,0.5428067
1515.2,0.3799415,0.6199762
1521.6,0.2291511,0.7707435
1528,0.1163488,0.8835459
1534.4,0.112348,0.8875656
1540.8,0.1288137,0.871113
1547.2,0.1272298,0.8727025
1553.6,0.1091155,0.8908185
1560,8.85E-02,0.9114341
1566.4,7.93E-02,0.9206583
1572.8,0.0823042,0.917634
1579.2,8.79E-02,0.9120317
1585.6,8.81E-02,0.9118805
1592,8.10E-02,0.9189197
1598.4,6.94E-02,0.9304985
1604.8,5.82E-02,0.9417812
1611.2,5.24E-02,0.9475886
1617.6,5.49E-02,0.9450226
1624,6.44E-02,0.9355801
1630.4,7.57E-02,0.9242573
1636.8,8.36E-02,0.9163147
1643.2,8.52E-02,0.9147846
1649.6,8.00E-02,0.9199435
1656,0.0700302,0.9299168
1662.4,5.85E-02,0.9414601
1668.8,4.91E-02,0.9508346
1675.2,4.50E-02,0.9549428
1681.6,4.73E-02,0.9526483
1688,5.47E-02,0.9452534
1694.4,6.41E-02,0.9358472
1700.8,7.22E-02,0.9277487
1707.2,7.66E-02,0.9233659
1713.6,7.62E-02,0.9237193
1720,7.15E-02,0.9284242
1726.4,6.40E-02,0.9359701
1732.8,5.57E-02,0.9442081
1739.2,0.0491398,0.950811
1745.6,4.60E-02,0.9539374
1752,0.0471265,0.9528247
1758.4,5.19E-02,0.9480276
1764.8,5.88E-02,0.9411337
1771.2,6.58E-02,0.9341757
1777.6,7.10E-02,0.9289813
1784,7.32E-02,0.9267501
1790.4,7.21E-02,0.9278951
1796.8,6.79E-02,0.9320906
1803.2,6.16E-02,0.9383821
1809.6,5.46E-02,0.9453792
1816,4.84E-02,0.9515373
1822.4,4.44E-02,0.9555147
1828.8,0.0434562,0.9564979
1835.2,4.55E-02,0.9544258
1841.6,5.00E-02,0.9499795
1848,5.56E-02,0.9443291
1854.4,6.12E-02,0.9387496
1860.8,0.0655897,0.9343668
1867.2,6.80E-02,0.9319606
1873.6,6.81E-02,0.9318849
1880,6.59E-02,0.9340648
1886.4,6.19E-02,0.9380405
1892.8,5.69E-02,0.9430568
1899.2,5.18E-02,0.9481856
1905.6,4.75E-02,0.9525039
1912,4.47E-02,0.9552394
1918.4,4.40E-02,0.9559706
1924.8,4.53E-02,0.9547009
1931.2,4.81E-02,0.9518247
1937.6,5.20E-02,0.9479951
1944,5.60E-02,0.9439706
1950.4,5.95E-02,0.9404643
1956.8,6.19E-02,0.9380349
1963.2,6.29E-02,0.9370264
1969.6,6.24E-02,0.9375494
1976,6.05E-02,0.9394786
1982.4,5.75E-02,0.942468
1988.8,5.39E-02,0.9460241
1995.2,0.0503701,0.9495894
2001.6,4.73E-02,0.9525985
2008,4.53E-02,0.9545289
2014.4,4.46E-02,0.9550842
2020.8,0.0453187,0.9542231
2027.2,4.73E-02,0.9521512
2033.6,5.00E-02,0.9492608
2040,5.31E-02,0.9460416
2046.4,5.61E-02,0.9429895
2052.8,0.0584086,0.9405317
2059.2,5.98E-02,0.9389769
2065.6,6.02E-02,0.9384891
2072,5.95E-02,0.9390965
2078.4,0.0577937,0.9406762
2084.8,5.54E-02,0.9429815
2091.2,5.26E-02,0.9456731
2097.6,4.97E-02,0.9483624
2104,4.73E-02,0.9506644
2110.4,4.56E-02,0.9522565
2116.8,4.48E-02,0.9529266
2123.2,4.50E-02,0.9526047
2129.6,4.62E-02,0.9513662
2136,4.80E-02,0.94941
2142.4,5.03E-02,0.9470164
2148.8,5.27E-02,0.9444977
2155.2,0.0549776,0.9421562
2161.6,5.68E-02,0.9402452
2168,5.80E-02,0.9389421
2174.4,5.85E-02,0.9383495
2180.8,5.82E-02,0.9384887
2187.2,5.73E-02,0.9393041
2193.6,5.58E-02,0.9406736
2200,5.40E-02,0.9424223
2206.4,5.19E-02,0.9443421
2212.8,0.0499632,0.9462145
2219.2,4.82E-02,0.9478366
2225.6,4.69E-02,0.9490461
2232,4.61E-02,0.9497409
2238.4,4.59E-02,0.94989
2244.8,4.61E-02,0.9495327
2251.2,4.68E-02,0.9487679
2257.6,4.77E-02,0.947734
2264,4.88E-02,0.9465871
2270.4,4.98E-02,0.9454785
2276.8,5.07E-02,0.944537
2283.2,5.13E-02,0.9438571
2289.6,5.15E-02,0.9434921
2296,0.0514857,0.9434533
2302.4,5.11E-02,0.9437121
2308.8,0.0505372,0.9442057
2315.2,4.98E-02,0.9448452
2321.6,0.0490154,0.9455258
2328,4.83E-02,0.9461383
2334.4,4.78E-02,0.946583
2340.8,4.75E-02,0.9467812
2347.2,4.75E-02,0.9466874
2353.6,4.78E-02,0.9462959
2360,4.83E-02,0.9456422
2366.4,4.91E-02,0.9447991
2372.8,0.0499463,0.943866
2379.2,5.08E-02,0.9429563
2385.6,0.051473,0.9421815
2392,0.0519375,0.9416372
2398.4,5.21E-02,0.9413917
2404.8,5.19E-02,0.9414783
2411.2,5.14E-02,0.9418916
2417.6,0.0506401,0.9425887
2424,4.96E-02,0.9434926
2430.4,4.85E-02,0.9444988
2436.8,0.0474532,0.9454849
2443.2,0.0465152,0.9463235
2449.6,4.59E-02,0.9468843
2456,0.0455886,0.9470549
2462.4,4.58E-02,0.9467493
2468.8,4.65E-02,0.9459164
2475.2,4.78E-02,0.9445442
2481.6,4.96E-02,0.9426598
2488,5.19E-02,0.9403211
2494.4,0.0545439,0.9376017
2500,0.0571185,0.9349641