File: inputs/coatings/quoted_old/materionFEIBlockingFilter.csv
Preliminary design data,,
2161,,
Wavelength (nm),%R,%T
940,0.7413391,0.195699
948,0.1656133,0.7370825
956,3.85E-02,0.8783354
964,7.41E-02,0.850459
972,3.43E-02,0.8898208
980,3.55E-02,0.8914754
988,3.61E-02,0.8930114
996,3.01E-02,0.9001563
1004,3.43E-02,0.8982276
1012,3.41E-02,0.9003441
1020,3.77E-02,0.8988407
1028,0.0316885,0.9062927
1036,3.43E-02,0.905799
1044,3.43E-02,0.9075006
1052,3.30E-02,0.9102136
1060,0.0333385,0.9114958
1068,3.06E-02,0.9155512
1076,3.68E-02,0.9111797
1084,3.12E-02,0.9177014
1092,4.14E-02,0.9093318
1100,3.79E-02,0.9144701
1108,3.88E-02,0.9139835
1116,4.52E-02,0.9088353
1124,3.86E-02,0.9170234
1132,3.50E-02,0.921299
1140,4.04E-02,0.9169828
1148,3.78E-02,0.9201817
1156,3.15E-02,0.9268836
1164,3.44E-02,0.9249795
1172,3.67E-02,0.923511
1180,4.40E-02,0.9171672
1188,0.036265,0.9251956
1196,3.60E-02,0.9261506
1204,4.63E-02,0.917379
1212,3.55E-02,0.9286386
1220,3.30E-02,0.9316397
1228,3.89E-02,0.9267641
1236,3.35E-02,0.9326557
1244,3.23E-02,0.9344076
1252,3.24E-02,0.9349723
1260,3.22E-02,0.9357584
1268,3.67E-02,0.931958
1276,3.46E-02,0.9346965
1284,3.16E-02,0.9381589
1292,3.41E-02,0.9364369
1300,3.22E-02,0.9388676
1308,3.38E-02,0.9379524
1316,0.0406526,0.9320586
1324,3.73E-02,0.9361783
1332,3.20E-02,0.9420638
1340,3.53E-02,0.9396372
1348,0.0346489,0.9409766
1356,0.0318037,0.944457
1364,3.64E-02,0.9406575
1372,3.76E-02,0.9401222
1380,3.26E-02,0.9457776
1388,3.42E-02,0.9449018
1396,3.82E-02,0.9416783
1404,3.45E-02,0.9456918
1412,3.22E-02,0.9480885
1420,3.63E-02,0.9441444
1428,3.65E-02,0.9441316
1436,3.23E-02,0.948368
1444,3.40E-02,0.946871
1452,3.79E-02,0.9431427
1460,3.52E-02,0.9458976
1468,3.19E-02,0.9491974
1476,3.53E-02,0.9459971
1484,3.78E-02,0.943699
1492,3.40E-02,0.9474694
1500,0.0321862,0.9494163
1508,3.58E-02,0.9460192
1516,3.67E-02,0.9452045
1524,3.30E-02,0.9489164
1532,3.26E-02,0.9494442
1540,3.61E-02,0.9460365
1548,3.61E-02,0.9461328
1556,3.27E-02,0.9495833
1564,3.29E-02,0.949419
1572,3.60E-02,0.9465026
1580,3.53E-02,0.9472245
1588,0.0323963,0.9501106
1596,3.31E-02,0.9494603
1604,3.53E-02,0.9473538
1612,3.42E-02,0.9484141
1620,3.24E-02,0.9502527
1628,3.37E-02,0.9489383
1636,3.53E-02,0.9473987
1644,0.0335918,0.9489725
1652,3.24E-02,0.9500976
1660,3.41E-02,0.9483271
1668,3.45E-02,0.9478426
1676,3.29E-02,0.9492624
1684,3.35E-02,0.9483888
1692,3.41E-02,0.9475006
1700,3.25E-02,0.9486942
1708,3.45E-02,0.9462399
1716,3.44E-02,0.9455128
1724,3.27E-02,0.9460959
1732,4.07E-02,0.9366391
1740,3.13E-02,0.9425925
1748,4.27E-02,0.9245006
1756,0.6718898,0.2945536
1764,0.9809146,8.77E-03
1772,0.9936961,5.79E-04
1780,0.9960268,6.52E-05
1788,0.9970589,1.03E-05
1796,0.9976736,2.06E-06
1804,0.9980851,4.92E-07
1812,0.9983784,1.36E-07
1820,0.9985955,4.24E-08
1828,0.9987616,1.46E-08
1836,0.9988915,5.53E-09
1844,0.9989953,2.26E-09
1852,0.9990794,9.93E-10
1860,0.9991486,4.64E-10
1868,0.9992061,2.30E-10
1876,0.9992543,1.20E-10
1884,0.9992951,6.56E-11
1892,0.99933,3.76E-11
1900,0.9993598,2.24E-11
1908,0.9993857,1.39E-11
1916,0.999408,8.99E-12
1924,0.9994274,6.00E-12
1932,0.9994444,4.15E-12
1940,0.9994591,2.95E-12
1948,0.9994722,2.17E-12
1956,0.9994836,1.64E-12
1964,0.9994937,1.28E-12
1972,0.9995025,1.02E-12
1980,0.9995103,8.37E-13
1988,0.9995171,7.05E-13
1996,0.9995231,6.07E-13
2004,0.9995295,5.36E-13
2012,0.9995366,4.83E-13
2020,0.999543,4.46E-13
2028,0.9995489,4.21E-13
2036,0.9995542,4.05E-13
2044,0.9995589,3.99E-13
2052,0.9995633,4.02E-13
2060,0.9995674,4.13E-13
2068,0.999571,4.33E-13
2076,0.9995744,4.64E-13
2084,0.9995775,5.07E-13
2092,0.9995803,5.67E-13
2100,0.9995828,6.47E-13
2108,0.9995849,7.53E-13
2116,0.9995866,8.96E-13
2124,0.9995883,1.09E-12
2132,0.9995896,1.35E-12
2140,0.9995908,1.72E-12
2148,0.9995919,2.24E-12
2156,0.9995928,2.97E-12
2164,0.9995937,4.05E-12
2172,0.9995943,5.64E-12
2180,0.9995948,8.07E-12
2188,0.9995953,1.19E-11
2196,0.9995955,1.79E-11
2204,0.9995958,2.81E-11
2212,0.9995958,4.57E-11
2220,0.9995956,7.82E-11
2228,0.9995955,1.44E-10
2236,0.9995951,2.92E-10
2244,0.9995948,6.99E-10
2252,0.9995943,2.29E-09
2260,0.9995937,1.62E-08
2268,0.9995931,3.07E-08
2276,0.9995924,6.40E-09
2284,0.9995915,3.29E-09
2292,0.9995906,2.51E-09
2300,0.9995896,2.46E-09
2308,0.9995888,3.03E-09
2316,0.999588,4.91E-09
2324,0.9995871,1.30E-08
2332,0.999586,1.03E-07
2340,0.999585,1.92E-08
2348,0.9995838,4.10E-09
2356,0.9995826,1.67E-09
2364,0.9995812,9.02E-10
2372,0.9995798,5.76E-10
2380,0.9995784,4.13E-10
2388,0.9995767,3.23E-10
2396,0.9995751,2.71E-10
2404,0.9995733,2.42E-10
2412,0.9995716,2.28E-10
2420,0.9995698,2.27E-10
2428,0.999568,2.37E-10
2436,0.9995658,2.63E-10
2444,0.9995637,3.09E-10
2452,0.9995615,3.88E-10
2460,0.9995593,5.32E-10
2468,0.9995569,8.14E-10
2476,0.9995545,1.46E-09
2484,0.9995519,3.25E-09
2492,0.9995493,7.62E-09
2500,0.9995465,5.78E-09
2508,0.9995425,2.30E-09
2516,0.9995382,1.12E-09
2524,0.9995338,6.57E-10
2532,0.9995292,4.42E-10
2540,0.9995244,3.27E-10
2548,0.9995196,2.59E-10
2556,0.9995145,2.16E-10
2564,0.9995093,1.89E-10
2572,0.9995039,1.72E-10
2580,0.9994982,1.61E-10
2588,0.9994924,1.55E-10
2596,0.9994863,1.54E-10
2604,0.99948,1.56E-10
2612,0.9994735,1.61E-10
2620,0.9994667,1.70E-10
2628,0.9994597,1.82E-10
2636,0.9994524,1.98E-10
2644,0.9994447,2.19E-10
2652,0.9994368,2.45E-10
2660,0.9994286,2.76E-10
2668,0.9994199,3.13E-10
2676,0.9994109,3.56E-10
2684,0.9994016,4.05E-10
2692,0.9993919,4.57E-10
2700,0.9993816,5.12E-10
2708,0.9993709,5.68E-10
2716,0.9993597,6.21E-10
2724,0.9993479,6.70E-10
2732,0.9993355,7.15E-10
2740,0.9993225,7.56E-10
2748,0.9993088,7.95E-10
2756,0.9992942,8.35E-10
2764,0.9992789,8.78E-10
2772,0.9992626,9.28E-10
2780,0.9992455,9.86E-10
2788,0.999227,1.06E-09
2796,0.9992074,1.14E-09
2804,0.9991864,1.25E-09
2812,0.9991639,1.39E-09
2820,0.9991395,1.56E-09
2828,0.9991133,1.78E-09
2836,0.9990846,2.05E-09
2844,0.9990533,2.39E-09
2852,0.9990188,2.84E-09
2860,0.9989805,3.43E-09
2868,0.9989378,4.20E-09
2876,0.9988897,5.22E-09
2884,0.9988348,6.63E-09
2892,0.9987714,8.56E-09
2900,0.9986971,1.13E-08
2908,0.9986083,1.53E-08
2916,0.9984999,2.11E-08
2924,0.9983634,3.01E-08
2932,0.9981861,4.44E-08
2940,0.997945,6.80E-08
2948,0.9975978,1.10E-07
2956,0.9970585,1.88E-07
2964,0.9961278,3.53E-07
2972,0.9942508,7.52E-07
2980,0.9893771,1.99E-06
2988,0.9690163,8.18E-06
2996,0.8598092,4.87E-05
3004,0.9579873,1.80E-05
3012,0.9871568,6.37E-06
3020,0.993013,3.74E-06
3028,0.9949018,2.81E-06
3036,0.9955934,2.44E-06
3044,0.9957651,2.36E-06
3052,0.9956262,2.46E-06
3060,0.9952316,2.73E-06
3068,0.9945588,3.23E-06
3076,0.9935185,4.05E-06
3084,0.9919337,5.36E-06
3092,0.9894881,7.52E-06
3100,0.9856745,1.11E-05