File: inputs/coatings/quoted_old/materionH+JHGapDBS.csv
Preliminary design data,,
1901,,
Wavelength (nm),%R,%T
600,0.9642592,3.57E-02
607,0.7143296,0.2854128
614,0.8675792,0.1322288
621,0.9315783,6.84E-02
628,0.9623551,3.74E-02
635,0.9943719,5.59E-03
642,0.9984389,1.53E-03
649,0.762251,0.2376137
656,0.5255976,0.4742243
663,0.9418761,5.78E-02
670,0.9906126,9.30E-03
677,0.8936238,0.1062911
684,0.8653598,0.1345805
691,0.8835934,0.1163634
698,0.9953954,4.58E-03
705,0.9590628,4.02E-02
712,0.9845217,1.54E-02
719,0.3612979,0.6375429
726,0.9084896,9.15E-02
733,0.9605986,3.94E-02
740,0.9888042,1.12E-02
747,0.9882349,1.17E-02
754,0.9246863,7.51E-02
761,0.9630914,0.0368823
768,0.7218239,0.2780437
775,0.5593505,0.4403999
782,0.964786,3.52E-02
789,0.8887163,0.1112396
796,0.9872597,1.27E-02
803,0.9751623,2.48E-02
810,0.9616807,3.83E-02
817,0.9972477,2.73E-03
824,0.9992077,7.69E-04
831,0.9994776,4.90E-04
838,0.9985324,1.42E-03
845,0.9898862,1.00E-02
852,0.9990752,8.33E-04
859,0.9993001,6.15E-04
866,0.9971681,2.77E-03
873,0.9968766,3.08E-03
880,0.9994755,4.87E-04
887,0.999415,5.48E-04
894,0.9979611,2.00E-03
901,0.9490353,5.09E-02
908,0.9093099,9.06E-02
915,0.9123875,8.75E-02
922,0.7895423,0.2103451
929,0.7077838,0.2921062
936,0.6049982,0.3948915
943,0.4723487,0.5275239
950,8.46E-02,0.9151646
957,6.19E-02,0.9379815
964,5.61E-02,0.9437757
971,5.27E-02,0.9472214
978,5.97E-02,0.9402068
985,5.15E-02,0.9484263
992,5.59E-02,0.9439396
999,6.20E-02,0.9378405
1006,4.47E-02,0.9551589
1013,0.0662647,0.9336249
1020,0.0476408,0.9522479
1027,5.53E-02,0.9445634
1034,0.0595097,0.9403833
1041,4.73E-02,0.9525672
1048,5.84E-02,0.9414485
1055,4.77E-02,0.9522086
1062,5.20E-02,0.947922
1069,0.0615604,0.9383386
1076,4.64E-02,0.953524
1083,5.61E-02,0.9437823
1090,6.32E-02,0.9366537
1097,4.88E-02,0.9511322
1104,5.71E-02,0.9427963
1111,6.26E-02,0.93733
1118,0.0502543,0.9496493
1125,5.49E-02,0.9450457
1132,5.87E-02,0.9411666
1139,5.00E-02,0.9498804
1146,5.41E-02,0.9457989
1153,5.75E-02,0.9424393
1160,5.00E-02,0.9499115
1167,5.53E-02,0.9446493
1174,0.0628521,0.937058
1181,5.63E-02,0.9435688
1188,5.70E-02,0.9428996
1195,0.0659866,0.9339256
1202,5.70E-02,0.9428872
1209,4.83E-02,0.9515831
1216,6.03E-02,0.9396471
1223,6.28E-02,0.9370968
1230,0.0505783,0.9493347
1237,5.79E-02,0.9420133
1244,7.21E-02,0.9278533
1251,5.89E-02,0.9409773
1258,5.05E-02,0.949433
1265,7.13E-02,0.9286458
1272,0.0700786,0.9298365
1279,4.47E-02,0.9551703
1286,6.35E-02,0.936408
1293,8.77E-02,0.912257
1300,0.058573,0.9413319
1307,7.04E-02,0.9294851
1314,8.22E-02,0.9176728
1321,0.3601865,0.6397043
1328,0.481988,0.5179268
1335,0.7344024,0.2655298
1342,0.9249541,7.50E-02
1349,0.9724203,0.0275534
1356,0.9858557,1.41E-02
1363,0.9903517,9.63E-03
1370,0.9914766,8.51E-03
1377,0.9902778,9.71E-03
1384,0.9856482,1.43E-02
1391,0.9756901,2.43E-02
1398,0.9738266,2.62E-02
1405,0.9825584,1.74E-02
1412,0.987702,1.23E-02
1419,0.9888756,1.11E-02
1426,0.9872054,1.28E-02
1433,0.9839547,0.0160355
1440,0.9828951,1.71E-02
1447,0.9861383,1.39E-02
1454,0.9893377,1.07E-02
1461,0.990342,9.65E-03
1468,0.9891077,1.09E-02
1475,0.984927,0.015062
1482,0.9755485,2.44E-02
1489,0.9717994,0.0281873
1496,0.9808539,1.91E-02
1503,0.9868082,1.32E-02
1510,0.9883392,1.16E-02
1517,0.9862112,1.38E-02
1524,0.9779129,2.20E-02
1531,0.9612349,3.86E-02
1538,0.9700083,2.99E-02
1545,0.9858909,1.41E-02
1552,0.9917892,8.17E-03
1559,0.9935797,6.38E-03
1566,0.991511,8.36E-03
1573,0.9773949,2.23E-02
1580,0.9816661,1.83E-02
1587,0.9793226,0.0206488
1594,0.9698315,3.01E-02
1601,0.9706436,2.93E-02
1608,0.9809318,1.90E-02
1615,0.9862779,1.37E-02
1622,0.9876999,1.23E-02
1629,0.9862297,1.37E-02
1636,0.980949,1.90E-02
1643,0.9700657,2.98E-02
1650,0.9634803,3.64E-02
1657,0.9748228,2.51E-02
1664,0.98501,1.49E-02
1671,0.989732,1.02E-02
1678,0.9915103,8.42E-03
1685,0.9911847,8.66E-03
1692,0.9894177,1.04E-02
1699,0.9881426,1.18E-02
1706,0.9830477,1.69E-02
1713,0.9722306,2.77E-02
1720,0.9596444,4.02E-02
1727,0.9636508,3.63E-02
1734,0.975446,0.0244831
1741,0.9823092,1.76E-02
1748,0.9835286,1.64E-02
1755,0.9767345,2.30E-02
1762,0.9840959,0.0157978
1769,0.9857713,1.42E-02
1776,0.9838948,1.61E-02
1783,0.9791417,2.08E-02
1790,0.9697769,3.02E-02
1797,0.9511365,0.0488292
1804,0.911996,8.80E-02
1811,0.8278565,0.1720912
1818,0.6736239,0.3263094
1825,0.5261759,0.4737523
1832,0.5070426,0.4928932
1839,0.5408398,0.4591017
1846,0.5518642,0.4480754
1853,0.5209259,0.479003
1860,0.4233719,0.576534
1867,0.216593,0.7832813
1874,5.86E-02,0.9413226
1881,0.0607104,0.9391931
1888,7.60E-02,0.9238868
1895,7.12E-02,0.9287423
1902,6.53E-02,0.9346194
1909,7.21E-02,0.9278269
1916,8.43E-02,0.9155955
1923,9.03E-02,0.9096348
1930,8.65E-02,0.9134672
1937,7.57E-02,0.9241803
1944,6.41E-02,0.9358605
1951,5.79E-02,0.9420012
1958,6.04E-02,0.9395213
1965,0.0684583,0.9314743
1972,7.56E-02,0.9243551
1979,7.69E-02,0.9230682
1986,7.14E-02,0.9285691
1993,6.14E-02,0.9384919
2000,5.13E-02,0.9486614
2007,4.49E-02,0.9548323
2014,4.50E-02,0.9544781
2021,5.06E-02,0.9487044
2028,5.79E-02,0.9411915
2035,6.30E-02,0.9359165
2042,0.0634464,0.9352583
2049,5.92E-02,0.9393153
2056,5.21E-02,0.9461731
2063,4.53E-02,0.9527449
2070,4.18E-02,0.9560403
2077,4.32E-02,0.9544901
2084,4.88E-02,0.9486566
2091,5.65E-02,0.940839
2098,6.33E-02,0.9338997
2105,6.69E-02,0.9301106
2112,6.63E-02,0.9305096
2119,6.19E-02,0.934763
2126,5.51E-02,0.9413691
2133,4.81E-02,0.9481304
2140,4.32E-02,0.952862
2147,4.17E-02,0.954167
2154,0.0438026,0.9519349
2161,0.0483147,0.9472841
2168,5.35E-02,0.9419913
2175,5.75E-02,0.9378188
2182,0.0592056,0.9359845
2189,5.81E-02,0.9369085
2196,5.47E-02,0.9401865
2203,4.99E-02,0.9447408
2210,4.53E-02,0.9491291
2217,4.23E-02,0.9519747
2224,0.041723,0.9524018
2231,4.37E-02,0.9503013
2238,4.75E-02,0.9463087
2245,5.22E-02,0.9415272
2252,0.0564684,0.9371568
2259,5.93E-02,0.9341784
2266,6.02E-02,0.9331627
2273,0.05901,0.9341971
2280,5.61E-02,0.9369078
2287,5.23E-02,0.9405645
2294,4.84E-02,0.9442608
2301,4.54E-02,0.9471469
2308,4.37E-02,0.9486512
2315,4.36E-02,0.9486146
2322,4.48E-02,0.9472861
2329,4.68E-02,0.9451955
2336,4.89E-02,0.9429675
2343,5.06E-02,0.94115
2350,5.15E-02,0.9400976
2357,5.16E-02,0.9399183
2364,5.09E-02,0.9404768
2371,4.98E-02,0.9414452
2378,4.87E-02,0.9423948
2385,4.80E-02,0.942913
2392,4.81E-02,0.9427202
2399,4.89E-02,0.9417503
2406,5.04E-02,0.9401662
2413,5.22E-02,0.9383094
2420,5.38E-02,0.9366034
2427,0.0548082,0.9354457
2434,0.0550039,0.9351149
2441,5.43E-02,0.9357088
2448,5.27E-02,0.9370975
2455,5.07E-02,0.9389101
2462,4.88E-02,0.9405439
2469,4.80E-02,0.941201
2476,4.90E-02,0.9399704
2483,5.28E-02,0.935958
2490,6.02E-02,0.9284452
2497,7.15E-02,0.9170378
2500,7.76E-02,0.9109457